# Excitation energy versus level density.
# Ex [MeV]    rho [MeV^-1]    +drho [MeV^-1]    -drho [MeV^-1]
-3.6400e-01 4.3857e-01 2.6502e-01 2.6871e-01
-2.0400e-01 1.0268e+00 1.8352e-01 2.0365e-01
-4.4000e-02 2.4128e+00 3.2745e-01 3.6985e-01
1.1600e-01 3.7767e+00 5.0694e-01 5.5090e-01
2.7600e-01 4.4184e+00 5.0579e-01 5.4108e-01
4.3600e-01 4.3618e+00 5.6332e-01 5.7879e-01
5.9600e-01 6.5656e+00 6.7478e-01 6.8508e-01
7.5600e-01 1.0116e+01 9.7180e-01 9.7378e-01
9.1600e-01 1.4615e+01 1.2700e+00 1.2720e+00
1.0760e+00 1.6939e+01 1.6228e+00 1.6440e+00
1.2360e+00 1.9712e+01 1.9473e+00 2.0111e+00
1.3960e+00 2.6461e+01 2.6373e+00 2.7931e+00
1.5560e+00 4.0307e+01 4.2086e+00 4.5566e+00
1.7160e+00 5.4794e+01 5.8775e+00 6.5120e+00
1.8760e+00 6.7456e+01 8.5790e+00 9.4356e+00
2.0360e+00 9.5320e+01 1.2606e+01 1.4025e+01
2.1960e+00 1.3475e+02 1.8768e+01 2.0999e+01
2.3560e+00 1.4881e+02 2.5541e+01 2.7837e+01
2.5160e+00 1.9455e+02 3.4297e+01 3.7493e+01
2.6760e+00 3.1267e+02 5.6354e+01 6.1688e+01
2.8360e+00 4.5930e+02 9.3565e+01 1.0076e+02
2.9960e+00 5.0401e+02 1.1400e+02 1.2112e+02
3.1560e+00 6.9095e+02 1.6268e+02 1.7167e+02
3.3160e+00 9.0984e+02 2.2739e+02 2.3755e+02
3.4760e+00 1.2950e+03 3.4815e+02 3.5950e+02
3.6360e+00 1.3914e+03 4.0222e+02 4.1057e+02
3.7960e+00 2.4946e+03 7.6326e+02 7.7063e+02
3.9560e+00 3.8930e+03 1.2470e+03 1.2451e+03
4.1160e+00 3.8986e+03 1.3481e+03 1.3317e+03
4.2760e+00 3.8600e+03 1.3988e+03 1.3665e+03
4.4360e+00 5.6441e+03 2.1977e+03 2.1267e+03
4.5960e+00 9.8409e+03 3.9859e+03 3.8139e+03
4.7560e+00 1.2668e+04 5.4034e+03 5.1185e+03
4.9160e+00 1.8074e+04 8.2063e+03 7.7106e+03
5.0760e+00 3.0640e+04 1.4417e+04 1.3394e+04
5.2360e+00 4.1591e+04 2.0631e+04 1.9009e+04
5.3960e+00 5.6930e+04 2.9349e+04 2.6761e+04
5.5560e+00 5.5448e+04 3.1569e+04 2.8861e+04
5.7160e+00 9.1036e+04 5.3539e+04 4.8462e+04
5.8760e+00 1.3844e+05 8.9227e+04 8.1053e+04
6.0360e+00 2.6675e+05 1.8426e+05 1.6733e+05
